OOIBase32 Version 2.0.1.2 Data File
++++++++++++++++++++++++++++++++++++
Date: 01-30-2024, 12:08:24
User: Valued Ocean Optics Customer
Spectrometer Serial Number: I2J345
Spectrometer Channel: Master
Integration Time (msec): 100
Spectra Averaged: 1
Boxcar Smoothing: 1
Correct for Electrical Dark: Disabled
Time Normalized: Disabled
Dual-beam Reference: Disabled
Reference Channel: Master
Temperature: Not acquired
Spectrometer Type: S2000
ADC Type: USB2000
Number of Pixels in File: 2048
Graph Title: 
>>>>>Begin Spectral Data<<<<<
367.70	0.000
368.08	0.000
368.46	0.602
368.84	0.000
369.22	0.000
369.60	-0.301
369.98	0.000
370.36	0.176
370.74	0.000
371.12	0.000
371.50	0.000
371.88	0.000
372.25	0.000
372.63	0.000
373.01	0.000
373.39	0.000
373.77	0.000
374.15	0.000
374.53	0.000
374.91	0.000
375.29	0.000
375.67	0.000
376.04	0.000
376.42	0.477
376.80	0.653
377.18	0.097
377.56	-0.301
377.94	-0.051
378.32	0.301
378.69	0.146
379.07	0.327
379.45	0.138
379.83	-0.301
380.21	0.000
380.59	0.000
380.96	1.114
381.34	0.477
381.72	0.105
382.10	0.211
382.48	0.699
382.86	0.000
383.23	0.000
383.61	0.000
383.99	0.000
384.37	0.000
384.75	0.000
385.12	0.000
385.50	0.000
385.88	0.000
386.26	-0.564
386.63	-0.477
387.01	-0.079
387.39	0.000
387.77	0.000
388.14	0.000
388.52	0.000
388.90	0.778
389.28	0.000
389.65	1.000
390.03	0.426
390.41	-0.727
390.79	-1.301
391.16	0.000
391.54	0.000
391.92	0.000
392.30	-0.211
392.67	0.000
393.05	0.176
393.43	0.189
393.80	0.051
394.18	0.234
394.56	0.653
394.93	0.398
395.31	0.114
395.69	0.084
396.06	0.461
396.44	0.406
396.82	0.398
397.19	0.117
397.57	0.135
397.95	0.090
398.32	-0.097
398.70	0.090
399.08	0.092
399.45	0.125
399.83	0.026
400.21	0.067
400.58	0.206
400.96	0.329
401.34	0.278
401.71	0.157
402.09	0.076
402.46	-0.025
402.84	-0.067
403.22	-0.118
403.59	-0.043
403.97	0.131
404.34	0.101
404.72	0.097
405.10	-0.089
405.47	-0.083
405.85	-0.061
406.22	0.035
406.60	-0.032
406.97	-0.149
407.35	-0.149
407.73	0.032
408.10	0.120
408.48	0.164
408.85	0.158
409.23	0.320
409.60	0.339
409.98	0.255
410.35	0.249
410.73	0.258
411.10	0.217
411.48	0.117
411.85	0.026
412.23	-0.031
412.60	0.034
412.98	0.119
413.35	0.172
413.73	0.038
414.10	0.034
414.48	-0.046
414.85	0.079
415.23	0.072
415.60	0.160
415.98	0.176
416.35	0.201
416.73	0.206
417.10	0.188
417.48	0.148
417.85	0.180
418.23	0.135
418.60	0.115
418.98	0.092
419.35	0.046
419.72	0.087
420.10	0.095
420.47	0.179
420.85	0.159
421.22	0.188
421.60	0.197
421.97	0.185
422.34	0.162
422.72	0.090
423.09	0.123
423.47	0.101
423.84	0.100
424.21	0.083
424.59	0.088
424.96	0.189
425.34	0.192
425.71	0.133
426.08	0.093
426.46	0.059
426.83	0.147
427.20	0.144
427.58	0.111
427.95	0.101
428.32	0.055
428.70	0.107
429.07	0.101
429.44	0.095
429.82	0.066
430.19	0.062
430.56	0.088
430.94	0.135
431.31	0.117
431.68	0.123
432.06	0.103
432.43	0.128
432.80	0.133
433.18	0.129
433.55	0.115
433.92	0.149
434.29	0.162
434.67	0.179
435.04	0.147
435.41	0.110
435.79	0.115
436.16	0.123
436.53	0.156
436.90	0.168
437.28	0.137
437.65	0.119
438.02	0.087
438.39	0.095
438.77	0.104
439.14	0.143
439.51	0.164
439.88	0.164
440.25	0.155
440.63	0.153
441.00	0.166
441.37	0.145
441.74	0.137
442.12	0.125
442.49	0.114
442.86	0.094
443.23	0.099
443.60	0.114
443.98	0.119
444.35	0.123
444.72	0.121
445.09	0.128
445.46	0.104
445.83	0.112
446.21	0.112
446.58	0.128
446.95	0.133
447.32	0.138
447.69	0.138
448.06	0.130
448.43	0.115
448.81	0.111
449.18	0.105
449.55	0.125
449.92	0.122
450.29	0.123
450.66	0.142
451.03	0.144
451.40	0.159
451.77	0.145
452.15	0.148
452.52	0.131
452.89	0.115
453.26	0.122
453.63	0.147
454.00	0.152
454.37	0.149
454.74	0.162
455.11	0.152
455.48	0.149
455.85	0.115
456.22	0.123
456.59	0.110
456.97	0.122
457.34	0.122
457.71	0.135
458.08	0.138
458.45	0.140
458.82	0.137
459.19	0.134
459.56	0.136
459.93	0.131
460.30	0.134
460.67	0.122
461.04	0.128
461.41	0.129
461.78	0.134
462.15	0.125
462.52	0.119
462.89	0.133
463.26	0.148
463.63	0.152
464.00	0.141
464.37	0.143
464.74	0.139
465.11	0.139
465.47	0.129
465.84	0.139
466.21	0.146
466.58	0.140
466.95	0.138
467.32	0.132
467.69	0.145
468.06	0.138
468.43	0.145
468.80	0.139
469.17	0.130
469.54	0.127
469.91	0.147
470.28	0.171
470.64	0.177
471.01	0.154
471.38	0.148
471.75	0.146
472.12	0.149
472.49	0.147
472.86	0.147
473.23	0.151
473.60	0.146
473.96	0.139
474.33	0.145
474.70	0.139
475.07	0.139
475.44	0.137
475.81	0.143
476.17	0.149
476.54	0.146
476.91	0.143
477.28	0.141
477.65	0.143
478.02	0.140
478.38	0.138
478.75	0.133
479.12	0.138
479.49	0.143
479.86	0.149
480.22	0.157
480.59	0.157
480.96	0.156
481.33	0.158
481.70	0.155
482.06	0.159
482.43	0.158
482.80	0.163
483.17	0.163
483.53	0.164
483.90	0.164
484.27	0.163
484.64	0.154
485.00	0.153
485.37	0.152
485.74	0.157
486.11	0.169
486.47	0.171
486.84	0.172
487.21	0.159
487.58	0.160
487.94	0.165
488.31	0.166
488.68	0.167
489.04	0.163
489.41	0.173
489.78	0.178
490.14	0.184
490.51	0.180
490.88	0.185
491.24	0.185
491.61	0.187
491.98	0.178
492.34	0.177
492.71	0.175
493.08	0.180
493.44	0.183
493.81	0.186
494.18	0.185
494.54	0.184
494.91	0.187
495.28	0.188
495.64	0.186
496.01	0.188
496.37	0.196
496.74	0.205
497.11	0.201
497.47	0.206
497.84	0.204
498.21	0.208
498.57	0.200
498.94	0.205
499.30	0.211
499.67	0.212
500.03	0.214
500.40	0.211
500.77	0.212
501.13	0.216
501.50	0.218
501.86	0.222
502.23	0.221
502.59	0.222
502.96	0.227
503.32	0.226
503.69	0.233
504.06	0.233
504.42	0.241
504.79	0.239
505.15	0.242
505.52	0.240
505.88	0.245
506.25	0.248
506.61	0.251
506.98	0.256
507.34	0.260
507.71	0.267
508.07	0.267
508.44	0.263
508.80	0.261
509.17	0.263
509.53	0.270
509.89	0.273
510.26	0.280
510.62	0.285
510.99	0.288
511.35	0.283
511.72	0.289
512.08	0.294
512.45	0.301
512.81	0.294
513.18	0.293
513.54	0.293
513.90	0.300
514.27	0.301
514.63	0.304
515.00	0.304
515.36	0.304
515.72	0.304
516.09	0.308
516.45	0.310
516.82	0.320
517.18	0.317
517.54	0.322
517.91	0.318
518.27	0.321
518.63	0.324
519.00	0.324
519.36	0.329
519.73	0.334
520.09	0.333
520.45	0.335
520.82	0.331
521.18	0.340
521.54	0.343
521.91	0.350
522.27	0.350
522.63	0.346
523.00	0.345
523.36	0.347
523.72	0.352
524.08	0.353
524.45	0.354
524.81	0.357
525.17	0.355
525.54	0.352
525.90	0.359
526.26	0.366
526.63	0.371
526.99	0.365
527.35	0.361
527.71	0.361
528.08	0.358
528.44	0.363
528.80	0.364
529.16	0.371
529.53	0.372
529.89	0.373
530.25	0.369
530.61	0.369
530.98	0.368
531.34	0.373
531.70	0.373
532.06	0.374
532.42	0.372
532.79	0.371
533.15	0.366
533.51	0.371
533.87	0.374
534.23	0.379
534.60	0.371
534.96	0.365
535.32	0.362
535.68	0.365
536.04	0.365
536.40	0.366
536.77	0.364
537.13	0.365
537.49	0.360
537.85	0.363
538.21	0.360
538.57	0.358
538.93	0.353
539.30	0.349
539.66	0.354
540.02	0.349
540.38	0.355
540.74	0.349
541.10	0.355
541.46	0.346
541.82	0.345
542.18	0.334
542.55	0.336
542.91	0.335
543.27	0.341
543.63	0.335
543.99	0.333
544.35	0.330
544.71	0.330
545.07	0.331
545.43	0.327
545.79	0.330
546.15	0.327
546.51	0.323
546.87	0.315
547.23	0.311
547.59	0.304
547.95	0.304
548.32	0.301
548.68	0.302
549.04	0.297
549.40	0.294
549.76	0.290
550.12	0.287
550.48	0.287
550.84	0.286
551.20	0.284
551.56	0.281
551.92	0.276
552.28	0.277
552.63	0.270
552.99	0.268
553.35	0.264
553.71	0.262
554.07	0.262
554.43	0.257
554.79	0.250
555.15	0.248
555.51	0.248
555.87	0.246
556.23	0.241
556.59	0.239
556.95	0.237
557.31	0.233
557.67	0.226
558.03	0.225
558.39	0.225
558.74	0.226
559.10	0.222
559.46	0.219
559.82	0.213
560.18	0.209
560.54	0.209
560.90	0.207
561.26	0.205
561.61	0.199
561.97	0.198
562.33	0.199
562.69	0.197
563.05	0.193
563.41	0.192
563.77	0.192
564.12	0.192
564.48	0.189
564.84	0.187
565.20	0.183
565.56	0.177
565.92	0.172
566.27	0.169
566.63	0.169
566.99	0.166
567.35	0.165
567.71	0.165
568.06	0.165
568.42	0.162
568.78	0.157
569.14	0.156
569.50	0.158
569.85	0.157
570.21	0.149
570.57	0.146
570.93	0.143
571.28	0.143
571.64	0.140
572.00	0.136
572.36	0.134
572.71	0.134
573.07	0.134
573.43	0.134
573.78	0.128
574.14	0.126
574.50	0.123
574.86	0.122
575.21	0.121
575.57	0.119
575.93	0.119
576.28	0.116
576.64	0.114
577.00	0.113
577.35	0.112
577.71	0.110
578.07	0.107
578.42	0.106
578.78	0.109
579.14	0.110
579.49	0.112
579.85	0.110
580.21	0.108
580.56	0.105
580.92	0.104
581.28	0.101
581.63	0.100
581.99	0.098
582.35	0.098
582.70	0.097
583.06	0.093
583.41	0.090
583.77	0.089
584.13	0.088
584.48	0.088
584.84	0.082
585.19	0.078
585.55	0.074
585.91	0.074
586.26	0.075
586.62	0.073
586.97	0.072
587.33	0.071
587.68	0.071
588.04	0.071
588.39	0.068
588.75	0.065
589.11	0.066
589.46	0.065
589.82	0.067
590.17	0.064
590.53	0.064
590.88	0.063
591.24	0.063
591.59	0.065
591.95	0.064
592.30	0.062
592.66	0.061
593.01	0.059
593.37	0.059
593.72	0.058
594.08	0.058
594.43	0.060
594.79	0.059
595.14	0.060
595.49	0.056
595.85	0.055
596.20	0.051
596.56	0.049
596.91	0.045
597.27	0.045
597.62	0.045
597.98	0.044
598.33	0.041
598.68	0.041
599.04	0.041
599.39	0.042
599.75	0.043
600.10	0.042
600.45	0.042
600.81	0.039
601.16	0.039
601.52	0.039
601.87	0.038
602.22	0.037
602.58	0.037
602.93	0.034
603.28	0.037
603.64	0.033
603.99	0.034
604.35	0.032
604.70	0.033
605.05	0.035
605.41	0.036
605.76	0.038
606.11	0.037
606.47	0.037
606.82	0.035
607.17	0.036
607.52	0.034
607.88	0.032
608.23	0.030
608.58	0.031
608.94	0.034
609.29	0.031
609.64	0.028
610.00	0.026
610.35	0.025
610.70	0.023
611.05	0.020
611.41	0.021
611.76	0.020
612.11	0.019
612.46	0.018
612.82	0.019
613.17	0.019
613.52	0.016
613.87	0.014
614.23	0.011
614.58	0.013
614.93	0.016
615.28	0.020
615.63	0.020
615.99	0.018
616.34	0.015
616.69	0.017
617.04	0.017
617.39	0.018
617.75	0.019
618.10	0.021
618.45	0.020
618.80	0.020
619.15	0.018
619.50	0.017
619.86	0.016
620.21	0.017
620.56	0.017
620.91	0.016
621.26	0.013
621.61	0.012
621.96	0.013
622.32	0.013
622.67	0.013
623.02	0.010
623.37	0.008
623.72	0.008
624.07	0.007
624.42	0.006
624.77	0.005
625.12	0.005
625.47	0.005
625.83	0.006
626.18	0.010
626.53	0.010
626.88	0.008
627.23	0.007
627.58	0.009
627.93	0.010
628.28	0.010
628.63	0.008
628.98	0.008
629.33	0.008
629.68	0.006
630.03	0.004
630.38	0.003
630.73	0.002
631.08	0.001
631.43	0.000
631.78	-0.000
632.13	0.003
632.48	0.004
632.83	0.004
633.18	0.003
633.53	0.004
633.88	0.004
634.23	0.005
634.58	0.003
634.93	0.003
635.28	0.004
635.63	0.004
635.98	0.004
636.33	0.002
636.68	0.000
637.03	0.000
637.38	-0.001
637.73	-0.002
638.08	-0.005
638.42	-0.004
638.77	-0.000
639.12	0.003
639.47	0.004
639.82	0.003
640.17	0.002
640.52	0.000
640.87	0.000
641.22	-0.002
641.57	-0.004
641.91	-0.005
642.26	-0.005
642.61	-0.003
642.96	-0.005
643.31	-0.004
643.66	-0.005
644.01	-0.002
644.35	-0.001
644.70	-0.002
645.05	-0.006
645.40	-0.007
645.75	-0.008
646.10	-0.007
646.44	-0.009
646.79	-0.009
647.14	-0.011
647.49	-0.010
647.84	-0.011
648.18	-0.011
648.53	-0.010
648.88	-0.007
649.23	-0.004
649.57	-0.003
649.92	-0.004
650.27	-0.006
650.62	-0.005
650.97	-0.006
651.31	-0.006
651.66	-0.006
652.01	-0.006
652.36	-0.006
652.70	-0.007
653.05	-0.009
653.40	-0.009
653.74	-0.009
654.09	-0.010
654.44	-0.012
654.79	-0.010
655.13	-0.010
655.48	-0.008
655.83	-0.011
656.17	-0.011
656.52	-0.013
656.87	-0.012
657.21	-0.012
657.56	-0.011
657.91	-0.010
658.25	-0.010
658.60	-0.010
658.95	-0.010
659.29	-0.010
659.64	-0.011
659.99	-0.011
660.33	-0.011
660.68	-0.013
661.03	-0.012
661.37	-0.012
661.72	-0.010
662.06	-0.010
662.41	-0.012
662.76	-0.011
663.10	-0.011
663.45	-0.010
663.79	-0.014
664.14	-0.014
664.49	-0.011
664.83	-0.008
665.18	-0.010
665.52	-0.011
665.87	-0.013
666.21	-0.009
666.56	-0.010
666.90	-0.009
667.25	-0.012
667.60	-0.012
667.94	-0.014
668.29	-0.014
668.63	-0.016
668.98	-0.015
669.32	-0.016
669.67	-0.019
670.01	-0.020
670.36	-0.022
670.70	-0.020
671.05	-0.020
671.39	-0.015
671.74	-0.014
672.08	-0.012
672.43	-0.015
672.77	-0.017
673.12	-0.019
673.46	-0.018
673.80	-0.016
674.15	-0.015
674.49	-0.014
674.84	-0.014
675.18	-0.013
675.53	-0.014
675.87	-0.014
676.21	-0.015
676.56	-0.015
676.90	-0.015
677.25	-0.015
677.59	-0.015
677.94	-0.015
678.28	-0.014
678.62	-0.014
678.97	-0.015
679.31	-0.015
679.65	-0.015
680.00	-0.015
680.34	-0.017
680.69	-0.020
681.03	-0.020
681.37	-0.020
681.72	-0.018
682.06	-0.017
682.40	-0.017
682.75	-0.019
683.09	-0.020
683.43	-0.019
683.78	-0.018
684.12	-0.016
684.46	-0.016
684.81	-0.014
685.15	-0.015
685.49	-0.016
685.83	-0.018
686.18	-0.018
686.52	-0.019
686.86	-0.019
687.21	-0.019
687.55	-0.020
687.89	-0.019
688.23	-0.019
688.58	-0.020
688.92	-0.022
689.26	-0.025
689.60	-0.026
689.95	-0.027
690.29	-0.025
690.63	-0.025
690.97	-0.024
691.32	-0.025
691.66	-0.024
692.00	-0.023
692.34	-0.021
692.68	-0.022
693.03	-0.021
693.37	-0.020
693.71	-0.018
694.05	-0.020
694.39	-0.019
694.73	-0.019
695.08	-0.019
695.42	-0.020
695.76	-0.021
696.10	-0.021
696.44	-0.020
696.78	-0.020
697.13	-0.020
697.47	-0.020
697.81	-0.019
698.15	-0.018
698.49	-0.019
698.83	-0.018
699.17	-0.019
699.51	-0.020
699.85	-0.021
700.20	-0.020
700.54	-0.018
700.88	-0.021
701.22	-0.024
701.56	-0.024
701.90	-0.023
702.24	-0.020
702.58	-0.021
702.92	-0.022
703.26	-0.023
703.60	-0.021
703.94	-0.019
704.28	-0.017
704.62	-0.017
704.96	-0.018
705.30	-0.021
705.65	-0.022
705.99	-0.021
706.33	-0.019
706.67	-0.020
707.01	-0.021
707.35	-0.020
707.69	-0.020
708.03	-0.018
708.37	-0.020
708.71	-0.020
709.04	-0.022
709.38	-0.021
709.72	-0.020
710.06	-0.021
710.40	-0.019
710.74	-0.020
711.08	-0.019
711.42	-0.021
711.76	-0.021
712.10	-0.022
712.44	-0.021
712.78	-0.020
713.12	-0.018
713.46	-0.018
713.80	-0.021
714.14	-0.021
714.47	-0.019
714.81	-0.017
715.15	-0.018
715.49	-0.019
715.83	-0.019
716.17	-0.020
716.51	-0.023
716.85	-0.024
717.18	-0.026
717.52	-0.023
717.86	-0.024
718.20	-0.022
718.54	-0.022
718.88	-0.020
719.22	-0.020
719.55	-0.020
719.89	-0.020
720.23	-0.019
720.57	-0.022
720.91	-0.025
721.24	-0.027
721.58	-0.024
721.92	-0.023
722.26	-0.021
722.60	-0.023
722.93	-0.025
723.27	-0.027
723.61	-0.026
723.95	-0.025
724.28	-0.024
724.62	-0.023
724.96	-0.024
725.30	-0.023
725.63	-0.023
725.97	-0.023
726.31	-0.024
726.65	-0.024
726.98	-0.024
727.32	-0.022
727.66	-0.023
728.00	-0.022
728.33	-0.021
728.67	-0.019
729.01	-0.018
729.34	-0.018
729.68	-0.019
730.02	-0.016
730.35	-0.015
730.69	-0.015
731.03	-0.017
731.36	-0.018
731.70	-0.017
732.04	-0.017
732.37	-0.016
732.71	-0.017
733.05	-0.017
733.38	-0.018
733.72	-0.019
734.06	-0.018
734.39	-0.019
734.73	-0.018
735.06	-0.019
735.40	-0.017
735.74	-0.016
736.07	-0.016
736.41	-0.017
736.74	-0.017
737.08	-0.018
737.41	-0.015
737.75	-0.013
738.09	-0.011
738.42	-0.012
738.76	-0.013
739.09	-0.013
739.43	-0.011
739.76	-0.012
740.10	-0.015
740.43	-0.015
740.77	-0.015
741.11	-0.014
741.44	-0.018
741.78	-0.020
742.11	-0.018
742.45	-0.016
742.78	-0.015
743.12	-0.018
743.45	-0.019
743.79	-0.018
744.12	-0.018
744.45	-0.016
744.79	-0.017
745.12	-0.015
745.46	-0.015
745.79	-0.014
746.13	-0.016
746.46	-0.017
746.80	-0.017
747.13	-0.019
747.47	-0.019
747.80	-0.020
748.13	-0.019
748.47	-0.017
748.80	-0.016
749.14	-0.014
749.47	-0.013
749.80	-0.014
750.14	-0.018
750.47	-0.022
750.81	-0.023
751.14	-0.021
751.47	-0.019
751.81	-0.018
752.14	-0.016
752.47	-0.014
752.81	-0.014
753.14	-0.015
753.47	-0.015
753.81	-0.017
754.14	-0.018
754.47	-0.019
754.81	-0.019
755.14	-0.019
755.47	-0.019
755.81	-0.017
756.14	-0.018
756.47	-0.019
756.81	-0.022
757.14	-0.021
757.47	-0.022
757.80	-0.022
758.14	-0.026
758.47	-0.024
758.80	-0.023
759.14	-0.018
759.47	-0.017
759.80	-0.016
760.13	-0.017
760.47	-0.017
760.80	-0.019
761.13	-0.018
761.46	-0.017
761.79	-0.018
762.13	-0.018
762.46	-0.018
762.79	-0.018
763.12	-0.019
763.46	-0.021
763.79	-0.019
764.12	-0.016
764.45	-0.017
764.78	-0.020
765.11	-0.020
765.45	-0.017
765.78	-0.016
766.11	-0.016
766.44	-0.017
766.77	-0.017
767.10	-0.020
767.44	-0.022
767.77	-0.022
768.10	-0.021
768.43	-0.019
768.76	-0.022
769.09	-0.023
769.42	-0.024
769.75	-0.024
770.08	-0.023
770.42	-0.023
770.75	-0.022
771.08	-0.018
771.41	-0.016
771.74	-0.015
772.07	-0.016
772.40	-0.016
772.73	-0.016
773.06	-0.020
773.39	-0.021
773.72	-0.023
774.05	-0.019
774.38	-0.020
774.71	-0.020
775.04	-0.021
775.37	-0.020
775.70	-0.020
776.03	-0.022
776.36	-0.023
776.69	-0.022
777.02	-0.021
777.35	-0.022
777.68	-0.023
778.01	-0.023
778.34	-0.022
778.67	-0.020
779.00	-0.020
779.33	-0.019
779.66	-0.019
779.99	-0.016
780.32	-0.016
780.65	-0.016
780.98	-0.014
781.31	-0.015
781.64	-0.013
781.97	-0.015
782.30	-0.016
782.63	-0.020
782.95	-0.020
783.28	-0.019
783.61	-0.018
783.94	-0.015
784.27	-0.016
784.60	-0.017
784.93	-0.016
785.26	-0.015
785.59	-0.013
785.91	-0.014
786.24	-0.014
786.57	-0.013
786.90	-0.014
787.23	-0.018
787.56	-0.018
787.89	-0.018
788.21	-0.016
788.54	-0.016
788.87	-0.018
789.20	-0.017
789.53	-0.017
789.85	-0.016
790.18	-0.016
790.51	-0.018
790.84	-0.019
791.17	-0.019
791.49	-0.017
791.82	-0.017
792.15	-0.018
792.48	-0.021
792.80	-0.022
793.13	-0.025
793.46	-0.023
793.79	-0.022
794.11	-0.017
794.44	-0.018
794.77	-0.017
795.10	-0.019
795.42	-0.019
795.75	-0.018
796.08	-0.015
796.40	-0.012
796.73	-0.013
797.06	-0.015
797.39	-0.018
797.71	-0.018
798.04	-0.021
798.37	-0.023
798.69	-0.025
799.02	-0.027
799.35	-0.028
799.67	-0.025
800.00	-0.022
800.32	-0.024
800.65	-0.029
800.98	-0.027
801.30	-0.026
801.63	-0.022
801.96	-0.024
802.28	-0.024
802.61	-0.029
802.93	-0.029
803.26	-0.029
803.59	-0.029
803.91	-0.031
804.24	-0.032
804.56	-0.026
804.89	-0.024
805.22	-0.022
805.54	-0.025
805.87	-0.025
806.19	-0.024
806.52	-0.024
806.84	-0.024
807.17	-0.023
807.49	-0.024
807.82	-0.024
808.14	-0.026
808.47	-0.022
808.79	-0.023
809.12	-0.021
809.44	-0.021
809.77	-0.021
810.09	-0.022
810.42	-0.022
810.74	-0.021
811.07	-0.021
811.39	-0.023
811.72	-0.020
812.04	-0.021
812.37	-0.022
812.69	-0.025
813.02	-0.024
813.34	-0.023
813.67	-0.023
813.99	-0.025
814.31	-0.024
814.64	-0.022
814.96	-0.019
815.29	-0.018
815.61	-0.020
815.93	-0.021
816.26	-0.019
816.58	-0.020
816.91	-0.022
817.23	-0.023
817.55	-0.021
817.88	-0.020
818.20	-0.019
818.52	-0.021
818.85	-0.021
819.17	-0.023
819.50	-0.020
819.82	-0.022
820.14	-0.020
820.47	-0.019
820.79	-0.017
821.11	-0.019
821.44	-0.022
821.76	-0.023
822.08	-0.022
822.40	-0.023
822.73	-0.022
823.05	-0.021
823.37	-0.022
823.70	-0.023
824.02	-0.023
824.34	-0.021
824.66	-0.020
824.99	-0.018
825.31	-0.019
825.63	-0.020
825.95	-0.020
826.28	-0.021
826.60	-0.020
826.92	-0.020
827.24	-0.016
827.57	-0.014
827.89	-0.015
828.21	-0.019
828.53	-0.022
828.85	-0.024
829.18	-0.022
829.50	-0.018
829.82	-0.020
830.14	-0.021
830.46	-0.028
830.78	-0.024
831.11	-0.023
831.43	-0.019
831.75	-0.023
832.07	-0.023
832.39	-0.025
832.71	-0.021
833.03	-0.020
833.36	-0.017
833.68	-0.019
834.00	-0.021
834.32	-0.024
834.64	-0.023
834.96	-0.024
835.28	-0.022
835.60	-0.021
835.92	-0.018
836.25	-0.019
836.57	-0.021
836.89	-0.021
837.21	-0.019
837.53	-0.021
837.85	-0.020
838.17	-0.021
838.49	-0.018
838.81	-0.020
839.13	-0.021
839.45	-0.021
839.77	-0.020
840.09	-0.020
840.41	-0.021
840.73	-0.018
841.05	-0.015
841.37	-0.014
841.69	-0.015
842.01	-0.017
842.33	-0.016
842.65	-0.018
842.97	-0.022
843.29	-0.020
843.61	-0.017
843.93	-0.012
844.25	-0.016
844.57	-0.020
844.89	-0.025
845.21	-0.024
845.53	-0.024
845.85	-0.023
846.16	-0.022
846.48	-0.020
846.80	-0.020
847.12	-0.020
847.44	-0.020
847.76	-0.013
848.08	-0.014
848.40	-0.015
848.72	-0.017
849.04	-0.014
849.35	-0.014
849.67	-0.016
849.99	-0.020
850.31	-0.019
850.63	-0.019
850.95	-0.015
851.27	-0.014
851.58	-0.015
851.90	-0.016
852.22	-0.015
852.54	-0.012
852.86	-0.010
853.17	-0.013
853.49	-0.015
853.81	-0.016
854.13	-0.015
854.45	-0.011
854.76	-0.010
855.08	-0.013
855.40	-0.016
855.72	-0.013
856.03	-0.011
856.35	-0.008
856.67	-0.011
856.99	-0.012
857.30	-0.011
857.62	-0.011
857.94	-0.012
858.26	-0.017
858.57	-0.015
858.89	-0.010
859.21	-0.009
859.53	-0.010
859.84	-0.012
860.16	-0.008
860.48	-0.009
860.79	-0.011
861.11	-0.013
861.43	-0.014
861.74	-0.013
862.06	-0.012
862.38	-0.014
862.69	-0.016
863.01	-0.020
863.33	-0.023
863.64	-0.019
863.96	-0.015
864.27	-0.010
864.59	-0.011
864.91	-0.012
865.22	-0.014
865.54	-0.012
865.85	-0.011
866.17	-0.013
866.49	-0.017
866.80	-0.020
867.12	-0.021
867.43	-0.021
867.75	-0.021
868.07	-0.019
868.38	-0.021
868.70	-0.020
869.01	-0.016
869.33	-0.014
869.64	-0.014
869.96	-0.015
870.27	-0.014
870.59	-0.009
870.90	-0.012
